# CD+32 from Hamuy,
# corrected for atmospheric absorption by ALG
#
    3008.400     16.24290      4.20000
    3012.600     16.00587      4.20000
    3016.800     15.63502      4.20000
    3021.000     15.10317      4.20000
    3025.200     14.88756      4.20000
    3029.400     14.83716      4.20000
    3033.600     14.56925      4.20000
    3037.800     14.21064      4.20000
    3042.000     14.04130      4.20000
    3046.200     14.02783      4.20000
    3050.400     14.01917      4.20000
    3054.600     13.98061      4.20000
    3058.800     13.96399      4.20000
    3063.000     13.93179      4.20000
    3067.200     13.79354      4.20000
    3071.400     13.60587      4.20000
    3075.600     13.47073      4.20000
    3079.800     13.39217      4.20000
    3084.000     13.34387      4.20000
    3088.200     13.30820      4.20000
    3092.400     13.26703      4.20000
    3096.600     13.22158      4.20000
    3100.800     13.18339      4.20000
    3105.000     13.14539      4.20000
    3109.200     13.09363      4.20000
    3113.400     13.03694      4.20000
    3117.600     12.99155      4.20000
    3121.800     12.94537      4.20000
    3126.000     12.87996      4.20000
    3130.200     12.80899      4.20000
    3134.400     12.75106      4.20000
    3138.600     12.70725      4.20000
    3142.800     12.67495      4.20000
    3147.000     12.64985      4.20000
    3151.200     12.62771      4.20000
    3155.400     12.59902      4.20000
    3159.600     12.55444      4.20000
    3163.800     12.51124      4.20000
    3168.000     12.48750      4.20000
    3172.200     12.47563      4.20000
    3176.400     12.46644      4.20000
    3180.600     12.45064      4.20000
    3184.800     12.42018      4.20000
    3189.000     12.38156      4.20000
    3193.200     12.34171      4.20000
    3197.400     12.31681      4.20000
    3201.600     12.31993      4.20000
    3205.800     12.33314      4.20000
    3210.000     12.33878      4.20000
    3214.200     12.33408      4.20000
    3218.400     12.31730      4.20000
    3222.600     12.29854      4.20000
    3226.800     12.28568      4.20000
    3231.000     12.26518      4.20000
    3235.200     12.22933      4.20000
    3239.400     12.19393      4.20000
    3243.600     12.16890      4.20000
    3247.800     12.14784      4.20000
    3252.000     12.12697      4.20000
    3256.200     12.10817      4.20000
    3260.400     12.09349      4.20000
    3264.600     12.08969      4.20000
    3268.800     12.09715      4.20000
    3273.000     12.10044      4.20000
    3277.200     12.08863      4.20000
    3281.400     12.06015      4.20000
    3285.600     12.02025      4.20000
    3289.800     11.98494      4.20000
    3294.000     11.96455      4.20000
    3298.200     11.96195      4.20000
    3302.400     11.97421      4.20000
    3306.600     11.98760      4.20000
    3310.800     11.99545      4.20000
    3315.000     12.00282      4.20000
    3319.200     12.01145      4.20000
    3323.400     12.01997      4.20000
    3327.600     12.02436      4.20000
    3331.800     12.01650      4.20000
    3336.000     11.99753      4.20000
    3340.200     11.97721      4.20000
    3344.400     11.96403      4.20000
    3348.600     11.96601      4.20000
    3352.800     11.97950      4.20000
    3357.000     11.99004      4.20000
    3361.200     11.99185      4.20000
    3365.400     11.98607      4.20000
    3369.600     11.97735      4.20000
    3373.800     11.97340      4.20000
    3378.000     11.97453      4.20000
    3382.200     11.97627      4.20000
    3386.400     11.97585      4.20000
    3390.600     11.97106      4.20000
    3394.800     11.96358      4.20000
    3399.000     11.95684      4.20000
    3403.200     11.95384      4.20000
    3407.400     11.95780      4.20000
    3411.600     11.96285      4.20000
    3415.800     11.95899      4.20000
    3420.000     11.95046      4.20000
    3424.200     11.94658      4.20000
    3428.400     11.94545      4.20000
    3432.600     11.94149      4.20000
    3436.800     11.94099      4.20000
    3441.000     11.95312      4.20000
    3445.200     11.96511      4.20000
    3449.400     11.95952      4.20000
    3453.600     11.94612      4.20000
    3457.800     11.93861      4.20000
    3462.000     11.94003      4.20000
    3466.200     11.95213      4.20000
    3470.400     11.96810      4.20000
    3474.600     11.97951      4.20000
    3478.800     11.98154      4.20000
    3483.000     11.97060      4.20000
    3487.200     11.95307      4.20000
    3491.400     11.93580      4.20000
    3495.600     11.92397      4.20000
    3499.800     11.92174      4.20000
    3504.000     11.92092      4.20000
    3508.200     11.91388      4.20000
    3512.400     11.90451      4.20000
    3516.600     11.89593      4.20000
    3520.800     11.88474      4.20000
    3525.000     11.86938      4.20000
    3529.200     11.85487      4.20000
    3533.400     11.84494      4.20000
    3537.600     11.83944      4.20000
    3541.800     11.83762      4.20000
    3546.000     11.83496      4.20000
    3550.200     11.82955      4.20000
    3554.400     11.82893      4.20000
    3558.600     11.83698      4.20000
    3562.800     11.84782      4.20000
    3567.000     11.85648      4.20000
    3571.200     11.85988      4.20000
    3575.400     11.85659      4.20000
    3579.600     11.84906      4.20000
    3583.800     11.84003      4.20000
    3588.000     11.83194      4.20000
    3592.200     11.82660      4.20000
    3596.400     11.82509      4.20000
    3600.600     11.82568      4.20000
    3604.800     11.82185      4.20000
    3609.000     11.81290      4.20000
    3613.200     11.80662      4.20000
    3617.400     11.80377      4.20000
    3621.600     11.79687      4.20000
    3625.800     11.78353      4.20000
    3630.000     11.76640      4.20000
    3634.200     11.74864      4.20000
    3638.400     11.73395      4.20000
    3642.600     11.72467      4.20000
    3646.800     11.72246      4.20000
    3651.000     11.72346      4.20000
    3655.200     11.71880      4.20000
    3659.400     11.71000      4.20000
    3663.600     11.70618      4.20000
    3667.800     11.70819      4.20000
    3672.000     11.71203      4.20000
    3676.200     11.71392      4.20000
    3680.400     11.70954      4.20000
    3684.600     11.70125      4.20000
    3688.800     11.69518      4.20000
    3693.000     11.69129      4.20000
    3697.200     11.68683      4.20000
    3701.400     11.68021      4.20000
    3705.600     11.67024      4.20000
    3709.800     11.65698      4.20000
    3714.000     11.64089      4.20000
    3718.200     11.62499      4.20000
    3722.400     11.61309      4.20000
    3726.600     11.60195      4.20000
    3730.800     11.58630      4.20000
    3735.000     11.56920      4.20000
    3739.200     11.55544      4.20000
    3743.400     11.54087      4.20000
    3747.600     11.51989      4.20000
    3751.800     11.49740      4.20000
    3756.000     11.47881      4.20000
    3760.200     11.46074      4.20000
    3764.400     11.44075      4.20000
    3768.600     11.40870      4.20000
    3772.800     11.35587      4.20000
    3777.000     11.31050      4.20000
    3781.200     11.29592      4.20000
    3785.400     11.30619      4.20000
    3789.600     11.33474      4.20000
    3793.800     11.34821      4.20000
    3798.000     11.31681      4.20000
    3802.200     11.25775      4.20000
    3806.400     11.19181      4.20000
    3810.600     11.14798      4.20000
    3814.800     11.14651      4.20000
    3819.000     11.18315      4.20000
    3823.200     11.24924      4.20000
    3827.400     11.31208      4.20000
    3831.600     11.33600      4.20000
    3835.800     11.30665      4.20000
    3840.000     11.22765      4.20000
    3844.200     11.13309      4.20000
    3848.400     11.04874      4.20000
    3852.600     10.98210      4.20000
    3856.800     10.93911      4.20000
    3861.000     10.92425      4.20000
    3865.200     10.93934      4.20000
    3869.400     10.98347      4.20000
    3873.600     11.05234      4.20000
    3877.800     11.13551      4.20000
    3882.000     11.21384      4.20000
    3886.200     11.25325      4.20000
    3890.400     11.23488      4.20000
    3894.600     11.17219      4.20000
    3898.800     11.08881      4.20000
    3903.000     11.01209      4.20000
    3907.200     10.95542      4.20000
    3911.400     10.91815      4.20000
    3915.600     10.89975      4.20000
    3919.800     10.89996      4.20000
    3924.000     10.91259      4.20000
    3928.200     10.92598      4.20000
    3932.400     10.93308      4.20000
    3936.600     10.93151      4.20000
    3940.800     10.92846      4.20000
    3945.000     10.93897      4.20000
    3949.200     10.97141      4.20000
    3953.400     11.02893      4.20000
    3957.600     11.10387      4.20000
    3961.800     11.17812      4.20000
    3966.000     11.22172      4.20000
    3970.200     11.19919      4.20000
    3974.400     11.12226      4.20000
    3978.600     11.02854      4.20000
    3982.800     10.94361      4.20000
    3987.000     10.88480      4.20000
    3991.200     10.84539      4.20000
    3995.400     10.80979      4.20000
    3999.600     10.77407      4.20000
    4003.800     10.73768      4.20000
    4008.000     10.70577      4.20000
    4012.200     10.68532      4.20000
    4016.400     10.67516      4.20000
    4020.600     10.67186      4.20000
    4024.800     10.67306      4.20000
    4029.000     10.67624      4.20000
    4033.200     10.68050      4.20000
    4037.400     10.68571      4.20000
    4041.600     10.68970      4.20000
    4045.800     10.69053      4.20000
    4050.000     10.69120      4.20000
    4054.200     10.69523      4.20000
    4058.400     10.70762      4.20000
    4062.600     10.73330      4.20000
    4066.800     10.76722      4.20000
    4071.000     10.80336      4.20000
    4075.200     10.83639      4.20000
    4079.400     10.86049      4.20000
    4083.600     10.89017      4.20000
    4087.800     10.93913      4.20000
    4092.000     10.99844      4.20000
    4096.200     11.05601      4.20000
    4100.400     11.07866      4.20000
    4104.600     11.04092      4.20000
    4108.800     10.97515      4.20000
    4113.000     10.91082      4.20000
    4117.200     10.86040      4.20000
    4121.400     10.83065      4.20000
    4125.600     10.80816      4.20000
    4129.800     10.78234      4.20000
    4134.000     10.75361      4.20000
    4138.200     10.72354      4.20000
    4142.400     10.69935      4.20000
    4146.600     10.68521      4.20000
    4150.800     10.67685      4.20000
    4155.000     10.67117      4.20000
    4159.200     10.66710      4.20000
    4163.400     10.66432      4.20000
    4167.600     10.66566      4.20000
    4171.800     10.67071      4.20000
    4176.000     10.67216      4.20000
    4180.200     10.66712      4.20000
    4184.400     10.66000      4.20000
    4188.600     10.65366      4.20000
    4192.800     10.64928      4.20000
    4197.000     10.64577      4.20000
    4201.200     10.63812      4.20000
    4205.400     10.62650      4.20000
    4209.600     10.61733      4.20000
    4213.800     10.61357      4.20000
    4218.000     10.61482      4.20000
    4222.200     10.61891      4.20000
    4226.400     10.62152      4.20000
    4230.600     10.62079      4.20000
    4234.800     10.61737      4.20000
    4239.000     10.61258      4.20000
    4243.200     10.60838      4.20000
    4247.400     10.60567      4.20000
    4251.600     10.60460      4.20000
    4255.800     10.60353      4.20000
    4260.000     10.59942      4.20000
    4264.200     10.59351      4.20000
    4268.400     10.58979      4.20000
    4272.600     10.58905      4.20000
    4276.800     10.59029      4.20000
    4281.000     10.59515      4.20000
    4285.200     10.60601      4.20000
    4289.400     10.62271      4.20000
    4293.600     10.64432      4.20000
    4297.800     10.66412      4.20000
    4302.000     10.67341      4.20000
    4306.200     10.67395      4.20000
    4310.400     10.67171      4.20000
    4314.600     10.67721      4.20000
    4318.800     10.70136      4.20000
    4323.000     10.75028      4.20000
    4327.200     10.82812      4.20000
    4331.400     10.91881      4.20000
    4335.600     10.99629      4.20000
    4339.800     11.02703      4.20000
    4344.000     10.98218      4.20000
    4348.200     10.89321      4.20000
    4352.400     10.79888      4.20000
    4356.600     10.71776      4.20000
    4360.800     10.66274      4.20000
    4365.000     10.62716      4.20000
    4369.200     10.60278      4.20000
    4373.400     10.58902      4.20000
    4377.600     10.58406      4.20000
    4381.800     10.58356      4.20000
    4386.000     10.58355      4.20000
    4390.200     10.58141      4.20000
    4394.400     10.57542      4.20000
    4398.600     10.56598      4.20000
    4402.800     10.55448      4.20000
    4407.000     10.54603      4.20000
    4411.200     10.54418      4.20000
    4415.400     10.54468      4.20000
    4419.600     10.54391      4.20000
    4423.800     10.54157      4.20000
    4428.000     10.53765      4.20000
    4432.200     10.53298      4.20000
    4436.400     10.52927      4.20000
    4440.600     10.53096      4.20000
    4444.800     10.53967      4.20000
    4449.000     10.54957      4.20000
    4453.200     10.55618      4.20000
    4457.400     10.55906      4.20000
    4461.600     10.55768      4.20000
    4465.800     10.55112      4.20000
    4470.000     10.54106      4.20000
    4474.200     10.53346      4.20000
    4478.400     10.53015      4.20000
    4482.600     10.52626      4.20000
    4486.800     10.51902      4.20000
    4491.000     10.50855      4.20000
    4495.200     10.49601      4.20000
    4499.400     10.48370      4.20000
    4503.600     10.47540      4.20000
    4507.800     10.47647      4.20000
    4512.000     10.48767      4.20000
    4516.200     10.50532      4.20000
    4520.400     10.52292      4.20000
    4524.600     10.53100      4.20000
    4528.800     10.52802      4.20000
    4533.000     10.51993      4.20000
    4537.200     10.51334      4.20000
    4541.400     10.51535      4.20000
    4545.600     10.52541      4.20000
    4549.800     10.53740      4.20000
    4554.000     10.54402      4.20000
    4558.200     10.53714      4.20000
    4562.400     10.52035      4.20000
    4566.600     10.50401      4.20000
    4570.800     10.49373      4.20000
    4575.000     10.49298      4.20000
    4579.200     10.49799      4.20000
    4583.400     10.50104      4.20000
    4587.600     10.50059      4.20000
    4591.800     10.49768      4.20000
    4596.000     10.49292      4.20000
    4600.200     10.48738      4.20000
    4604.400     10.48086      4.20000
    4608.600     10.47258      4.20000
    4612.800     10.46601      4.20000
    4617.000     10.46564      4.20000
    4621.200     10.46813      4.20000
    4625.400     10.46828      4.20000
    4629.600     10.46787      4.20000
    4633.800     10.46976      4.20000
    4638.000     10.47233      4.20000
    4642.200     10.47371      4.20000
    4646.400     10.47402      4.20000
    4650.600     10.47337      4.20000
    4654.800     10.47463      4.20000
    4659.000     10.48070      4.20000
    4663.200     10.48719      4.20000
    4667.400     10.48957      4.20000
    4671.600     10.48711      4.20000
    4675.800     10.47970      4.20000
    4680.000     10.47081      4.20000
    4684.200     10.46397      4.20000
    4688.400     10.46120      4.20000
    4692.600     10.46375      4.20000
    4696.800     10.46899      4.20000
    4701.000     10.47411      4.20000
    4705.200     10.47761      4.20000
    4709.400     10.47829      4.20000
    4713.600     10.47589      4.20000
    4717.800     10.47103      4.20000
    4722.000     10.46639      4.20000
    4726.200     10.46407      4.20000
    4730.400     10.46419      4.20000
    4734.600     10.46624      4.20000
    4738.800     10.46790      4.20000
    4743.000     10.46766      4.20000
    4747.200     10.46631      4.20000
    4751.400     10.46479      4.20000
    4755.600     10.46464      4.20000
    4759.800     10.46607      4.20000
    4764.000     10.46637      4.20000
    4768.200     10.46420      4.20000
    4772.400     10.46049      4.20000
    4776.600     10.45653      4.20000
    4780.800     10.45446      4.20000
    4785.000     10.45468      4.20000
    4789.200     10.45472      4.20000
    4793.400     10.45431      4.20000
    4797.600     10.45592      4.20000
    4801.800     10.46048      4.20000
    4806.000     10.46743      4.20000
    4810.200     10.47571      4.20000
    4814.400     10.48343      4.20000
    4818.600     10.49103      4.20000
    4822.800     10.50177      4.20000
    4827.000     10.51561      4.20000
    4831.200     10.52953      4.20000
    4835.400     10.54702      4.20000
    4839.600     10.57552      4.20000
    4843.800     10.62388      4.20000
    4848.000     10.70318      4.20000
    4852.200     10.80405      4.20000
    4856.400     10.89829      4.20000
    4860.600     10.94937      4.20000
    4864.800     10.92012      4.20000
    4869.000     10.83446      4.20000
    4873.200     10.74313      4.20000
    4877.400     10.66687      4.20000
    4881.600     10.61410      4.20000
    4885.800     10.57942      4.20000
    4890.000     10.55194      4.20000
    4894.200     10.52884      4.20000
    4898.400     10.50925      4.20000
    4902.600     10.49488      4.20000
    4906.800     10.48807      4.20000
    4911.000     10.48890      4.20000
    4915.200     10.49710      4.20000
    4919.400     10.50473      4.20000
    4923.600     10.50222      4.20000
    4927.800     10.49268      4.20000
    4932.000     10.48187      4.20000
    4936.200     10.47033      4.20000
    4940.400     10.45826      4.20000
    4944.600     10.44888      4.20000
    4948.800     10.44504      4.20000
    4953.000     10.44400      4.20000
    4957.200     10.44298      4.20000
    4961.400     10.44010      4.20000
    4965.600     10.43366      4.20000
    4969.800     10.43168      4.20000
    4974.000     10.44102      4.20000
    4978.200     10.45541      4.20000
    4982.400     10.46854      4.20000
    4986.600     10.47414      4.20000
    4990.800     10.46789      4.20000
    4995.000     10.46075      4.20000
    4999.200     10.46158      4.20000
    5003.400     10.46645      4.20000
    5007.600     10.47171      4.20000
    5011.800     10.47485      4.20000
    5016.000     10.47351      4.20000
    5020.200     10.46641      4.20000
    5024.400     10.45465      4.20000
    5028.600     10.44572      4.20000
    5032.800     10.44400      4.20000
    5037.000     10.44602      4.20000
    5041.200     10.44808      4.20000
    5045.400     10.44568      4.20000
    5049.600     10.43714      4.20000
    5053.800     10.42672      4.20000
    5058.000     10.41912      4.20000
    5062.200     10.41993      4.20000
    5066.400     10.43078      4.20000
    5070.600     10.44695      4.20000
    5074.800     10.46244      4.20000
    5079.000     10.46931      4.20000
    5083.200     10.46522      4.20000
    5087.400     10.45577      4.20000
    5091.600     10.44652      4.20000
    5095.800     10.44325      4.20000
    5100.000     10.44546      4.20000
    5104.200     10.44493      4.20000
    5108.400     10.44080      4.20000
    5112.600     10.43946      4.20000
    5116.800     10.44305      4.20000
    5121.000     10.45045      4.20000
    5125.200     10.45922      4.20000
    5129.400     10.46544      4.20000
    5133.600     10.46750      4.20000
    5137.800     10.46586      4.20000
    5142.000     10.46134      4.20000
    5146.200     10.45496      4.20000
    5150.400     10.44993      4.20000
