# HR718 from Hamuy,
# corrected for atmospheric absorption by ALG
#
    3063.000      6.98204      4.20000
    3067.200      6.83347      4.20000
    3071.400      6.78744      4.20000
    3075.600      6.71832      4.20000
    3079.800      6.61553      4.20000
    3084.000      6.51637      4.20000
    3088.200      6.44092      4.20000
    3092.400      6.37908      4.20000
    3096.600      6.31166      4.20000
    3100.800      6.24426      4.20000
    3105.000      6.18816      4.20000
    3109.200      6.14772      4.20000
    3113.400      6.12281      4.20000
    3117.600      6.08151      4.20000
    3121.800      6.01098      4.20000
    3126.000      5.94239      4.20000
    3130.200      5.88821      4.20000
    3134.400      5.84078      4.20000
    3138.600      5.79189      4.20000
    3142.800      5.75025      4.20000
    3147.000      5.72080      4.20000
    3151.200      5.69590      4.20000
    3155.400      5.66516      4.20000
    3159.600      5.63127      4.20000
    3163.800      5.60159      4.20000
    3168.000      5.57730      4.20000
    3172.200      5.55384      4.20000
    3176.400      5.52927      4.20000
    3180.600      5.50273      4.20000
    3184.800      5.47828      4.20000
    3189.000      5.46149      4.20000
    3193.200      5.44799      4.20000
    3197.400      5.43130      4.20000
    3201.600      5.40946      4.20000
    3205.800      5.38745      4.20000
    3210.000      5.37304      4.20000
    3214.200      5.36438      4.20000
    3218.400      5.35616      4.20000
    3222.600      5.34613      4.20000
    3226.800      5.33394      4.20000
    3231.000      5.31999      4.20000
    3235.200      5.30697      4.20000
    3239.400      5.30032      4.20000
    3243.600      5.29375      4.20000
    3247.800      5.28458      4.20000
    3252.000      5.27335      4.20000
    3256.200      5.25900      4.20000
    3260.400      5.24538      4.20000
    3264.600      5.23746      4.20000
    3268.800      5.23744      4.20000
    3273.000      5.24036      4.20000
    3277.200      5.23865      4.20000
    3281.400      5.22845      4.20000
    3285.600      5.21275      4.20000
    3289.800      5.20018      4.20000
    3294.000      5.19336      4.20000
    3298.200      5.19242      4.20000
    3302.400      5.19681      4.20000
    3306.600      5.19860      4.20000
    3310.800      5.19526      4.20000
    3315.000      5.19016      4.20000
    3319.200      5.18935      4.20000
    3323.400      5.19146      4.20000
    3327.600      5.19235      4.20000
    3331.800      5.18995      4.20000
    3336.000      5.18830      4.20000
    3340.200      5.18549      4.20000
    3344.400      5.18102      4.20000
    3348.600      5.17590      4.20000
    3352.800      5.17031      4.20000
    3357.000      5.16830      4.20000
    3361.200      5.17132      4.20000
    3365.400      5.17652      4.20000
    3369.600      5.17877      4.20000
    3373.800      5.17666      4.20000
    3378.000      5.17198      4.20000
    3382.200      5.16841      4.20000
    3386.400      5.17026      4.20000
    3390.600      5.17431      4.20000
    3394.800      5.17585      4.20000
    3399.000      5.17354      4.20000
    3403.200      5.17038      4.20000
    3407.400      5.16778      4.20000
    3411.600      5.16570      4.20000
    3415.800      5.16371      4.20000
    3420.000      5.16476      4.20000
    3424.200      5.16874      4.20000
    3428.400      5.17283      4.20000
    3432.600      5.17385      4.20000
    3436.800      5.17437      4.20000
    3441.000      5.17559      4.20000
    3445.200      5.17638      4.20000
    3449.400      5.17449      4.20000
    3453.600      5.17269      4.20000
    3457.800      5.17267      4.20000
    3462.000      5.17371      4.20000
    3466.200      5.17479      4.20000
    3470.400      5.17657      4.20000
    3474.600      5.17741      4.20000
    3478.800      5.17417      4.20000
    3483.000      5.17097      4.20000
    3487.200      5.17053      4.20000
    3491.400      5.17194      4.20000
    3495.600      5.17113      4.20000
    3499.800      5.16666      4.20000
    3504.000      5.16163      4.20000
    3508.200      5.15879      4.20000
    3512.400      5.15626      4.20000
    3516.600      5.15384      4.20000
    3520.800      5.15221      4.20000
    3525.000      5.15130      4.20000
    3529.200      5.14868      4.20000
    3533.400      5.14340      4.20000
    3537.600      5.13779      4.20000
    3541.800      5.13530      4.20000
    3546.000      5.13629      4.20000
    3550.200      5.13904      4.20000
    3554.400      5.14028      4.20000
    3558.600      5.13752      4.20000
    3562.800      5.13190      4.20000
    3567.000      5.13078      4.20000
    3571.200      5.13413      4.20000
    3575.400      5.13339      4.20000
    3579.600      5.13017      4.20000
    3583.800      5.12536      4.20000
    3588.000      5.12062      4.20000
    3592.200      5.11831      4.20000
    3596.400      5.11530      4.20000
    3600.600      5.11143      4.20000
    3604.800      5.10936      4.20000
    3609.000      5.11249      4.20000
    3613.200      5.11552      4.20000
    3617.400      5.11417      4.20000
    3621.600      5.10884      4.20000
    3625.800      5.10553      4.20000
    3630.000      5.10326      4.20000
    3634.200      5.10079      4.20000
    3638.400      5.09872      4.20000
    3642.600      5.09975      4.20000
    3646.800      5.10057      4.20000
    3651.000      5.09772      4.20000
    3655.200      5.09193      4.20000
    3659.400      5.09197      4.20000
    3663.600      5.09298      4.20000
    3667.800      5.09100      4.20000
    3672.000      5.08955      4.20000
    3676.200      5.09477      4.20000
    3680.400      5.09917      4.20000
    3684.600      5.09582      4.20000
    3688.800      5.08803      4.20000
    3693.000      5.07896      4.20000
    3697.200      5.07010      4.20000
    3701.400      5.06143      4.20000
    3705.600      5.05235      4.20000
    3709.800      5.03749      4.20000
    3714.000      5.01831      4.20000
    3718.200      4.99867      4.20000
    3722.400      4.97700      4.20000
    3726.600      4.95361      4.20000
    3730.800      4.92665      4.20000
    3735.000      4.89425      4.20000
    3739.200      4.85776      4.20000
    3743.400      4.84043      4.20000
    3747.600      4.83070      4.20000
    3751.800      4.79169      4.20000
    3756.000      4.72646      4.20000
    3760.200      4.68131      4.20000
    3764.400      4.67952      4.20000
    3768.600      4.69602      4.20000
    3772.800      4.65802      4.20000
    3777.000      4.56318      4.20000
    3781.200      4.47104      4.20000
    3785.400      4.44776      4.20000
    3789.600      4.49128      4.20000
    3793.800      4.55984      4.20000
    3798.000      4.58081      4.20000
    3802.200      4.49743      4.20000
    3806.400      4.37477      4.20000
    3810.600      4.27658      4.20000
    3814.800      4.23272      4.20000
    3819.000      4.24448      4.20000
    3823.200      4.31307      4.20000
    3827.400      4.41990      4.20000
    3831.600      4.51544      4.20000
    3835.800      4.52672      4.20000
    3840.000      4.43024      4.20000
    3844.200      4.28224      4.20000
    3848.400      4.15576      4.20000
    3852.600      4.07724      4.20000
    3856.800      4.03901      4.20000
    3861.000      4.03005      4.20000
    3865.200      4.04765      4.20000
    3869.400      4.09134      4.20000
    3873.600      4.16487      4.20000
    3877.800      4.27032      4.20000
    3882.000      4.39777      4.20000
    3886.200      4.49617      4.20000
    3890.400      4.49365      4.20000
    3894.600      4.37926      4.20000
    3898.800      4.23287      4.20000
    3903.000      4.10932      4.20000
    3907.200      4.02522      4.20000
    3911.400      3.97508      4.20000
    3915.600      3.94694      4.20000
    3919.800      3.93517      4.20000
    3924.000      3.93633      4.20000
    3928.200      3.94646      4.20000
    3932.400      3.95794      4.20000
    3936.600      3.96837      4.20000
    3940.800      3.98329      4.20000
    3945.000      4.01303      4.20000
    3949.200      4.06221      4.20000
    3953.400      4.13797      4.20000
    3957.600      4.24548      4.20000
    3961.800      4.37862      4.20000
    3966.000      4.49514      4.20000
    3970.200      4.52414      4.20000
    3974.400      4.43611      4.20000
    3978.600      4.28626      4.20000
    3982.800      4.15310      4.20000
    3987.000      4.06093      4.20000
    3991.200      4.00386      4.20000
    3995.400      3.96883      4.20000
    3999.600      3.94793      4.20000
    4003.800      3.93616      4.20000
    4008.000      3.93000      4.20000
    4012.200      3.92552      4.20000
    4016.400      3.92237      4.20000
    4020.600      3.92120      4.20000
    4024.800      3.92165      4.20000
    4029.000      3.92058      4.20000
    4033.200      3.91864      4.20000
    4037.400      3.91690      4.20000
    4041.600      3.91586      4.20000
    4045.800      3.91696      4.20000
    4050.000      3.92019      4.20000
    4054.200      3.92507      4.20000
    4058.400      3.93176      4.20000
    4062.600      3.94215      4.20000
    4066.800      3.95802      4.20000
    4071.000      3.98164      4.20000
    4075.200      4.01621      4.20000
    4079.400      4.06440      4.20000
    4083.600      4.13168      4.20000
    4087.800      4.22594      4.20000
    4092.000      4.35348      4.20000
    4096.200      4.48275      4.20000
    4100.400      4.54967      4.20000
    4104.600      4.50246      4.20000
    4108.800      4.36700      4.20000
    4113.000      4.22500      4.20000
    4117.200      4.11998      4.20000
    4121.400      4.05566      4.20000
    4125.600      4.01813      4.20000
    4129.800      3.99108      4.20000
    4134.000      3.96855      4.20000
    4138.200      3.95434      4.20000
    4142.400      3.94704      4.20000
    4146.600      3.94296      4.20000
    4150.800      3.94041      4.20000
    4155.000      3.94094      4.20000
    4159.200      3.94429      4.20000
    4163.400      3.94814      4.20000
    4167.600      3.95053      4.20000
    4171.800      3.95177      4.20000
    4176.000      3.95295      4.20000
    4180.200      3.95406      4.20000
    4184.400      3.95473      4.20000
    4188.600      3.95556      4.20000
    4192.800      3.95676      4.20000
    4197.000      3.95875      4.20000
    4201.200      3.96150      4.20000
    4205.400      3.96372      4.20000
    4209.600      3.96496      4.20000
    4213.800      3.96521      4.20000
    4218.000      3.96547      4.20000
    4222.200      3.96890      4.20000
    4226.400      3.97239      4.20000
    4230.600      3.97417      4.20000
    4234.800      3.97587      4.20000
    4239.000      3.97815      4.20000
    4243.200      3.97966      4.20000
    4247.400      3.98019      4.20000
    4251.600      3.98151      4.20000
    4255.800      3.98231      4.20000
    4260.000      3.98298      4.20000
    4264.200      3.98448      4.20000
    4268.400      3.98705      4.20000
    4272.600      3.99063      4.20000
    4276.800      3.99341      4.20000
    4281.000      3.99449      4.20000
    4285.200      3.99646      4.20000
    4289.400      4.00397      4.20000
    4293.600      4.01532      4.20000
    4297.800      4.02607      4.20000
    4302.000      4.03771      4.20000
    4306.200      4.05272      4.20000
    4310.400      4.07448      4.20000
    4314.600      4.10696      4.20000
    4318.800      4.15465      4.20000
    4323.000      4.22441      4.20000
    4327.200      4.32425      4.20000
    4331.400      4.45430      4.20000
    4335.600      4.57704      4.20000
    4339.800      4.62805      4.20000
    4344.000      4.56862      4.20000
    4348.200      4.43214      4.20000
    4352.400      4.29589      4.20000
    4356.600      4.19439      4.20000
    4360.800      4.13029      4.20000
    4365.000      4.09154      4.20000
    4369.200      4.06763      4.20000
    4373.400      4.05389      4.20000
    4377.600      4.04844      4.20000
    4381.800      4.04729      4.20000
    4386.000      4.04556      4.20000
    4390.200      4.04093      4.20000
    4394.400      4.03472      4.20000
    4398.600      4.03127      4.20000
    4402.800      4.03002      4.20000
    4407.000      4.02989      4.20000
    4411.200      4.03055      4.20000
    4415.400      4.03175      4.20000
    4419.600      4.03206      4.20000
    4423.800      4.03114      4.20000
    4428.000      4.03025      4.20000
    4432.200      4.03062      4.20000
    4436.400      4.03078      4.20000
    4440.600      4.03073      4.20000
    4444.800      4.03300      4.20000
    4449.000      4.03506      4.20000
    4453.200      4.03572      4.20000
    4457.400      4.03610      4.20000
    4461.600      4.03916      4.20000
    4465.800      4.04462      4.20000
    4470.000      4.04951      4.20000
    4474.200      4.05269      4.20000
    4478.400      4.05881      4.20000
    4482.600      4.06334      4.20000
    4486.800      4.06123      4.20000
    4491.000      4.05246      4.20000
    4495.200      4.04561      4.20000
    4499.400      4.04348      4.20000
    4503.600      4.04550      4.20000
    4507.800      4.04923      4.20000
    4512.000      4.05172      4.20000
    4516.200      4.05321      4.20000
    4520.400      4.05345      4.20000
    4524.600      4.05135      4.20000
    4528.800      4.05000      4.20000
    4533.000      4.05138      4.20000
    4537.200      4.05449      4.20000
    4541.400      4.05619      4.20000
    4545.600      4.06045      4.20000
    4549.800      4.06536      4.20000
    4554.000      4.06715      4.20000
    4558.200      4.06511      4.20000
    4562.400      4.05985      4.20000
    4566.600      4.05669      4.20000
    4570.800      4.05979      4.20000
    4575.000      4.06571      4.20000
    4579.200      4.06807      4.20000
    4583.400      4.06714      4.20000
    4587.600      4.06720      4.20000
    4591.800      4.06791      4.20000
    4596.000      4.06802      4.20000
    4600.200      4.06763      4.20000
    4604.400      4.06776      4.20000
    4608.600      4.06697      4.20000
    4612.800      4.06722      4.20000
    4617.000      4.06980      4.20000
    4621.200      4.07372      4.20000
    4625.400      4.07745      4.20000
    4629.600      4.07865      4.20000
    4633.800      4.07702      4.20000
    4638.000      4.07504      4.20000
    4642.200      4.07387      4.20000
    4646.400      4.07204      4.20000
    4650.600      4.07027      4.20000
    4654.800      4.07412      4.20000
    4659.000      4.07911      4.20000
    4663.200      4.08273      4.20000
    4667.400      4.08451      4.20000
    4671.600      4.08376      4.20000
    4675.800      4.08388      4.20000
    4680.000      4.08492      4.20000
    4684.200      4.08497      4.20000
    4688.400      4.08572      4.20000
    4692.600      4.08660      4.20000
    4696.800      4.08750      4.20000
    4701.000      4.08924      4.20000
    4705.200      4.09273      4.20000
    4709.400      4.09454      4.20000
    4713.600      4.09380      4.20000
    4717.800      4.09377      4.20000
    4722.000      4.09502      4.20000
    4726.200      4.09680      4.20000
    4730.400      4.09859      4.20000
    4734.600      4.10095      4.20000
    4738.800      4.10334      4.20000
    4743.000      4.10493      4.20000
    4747.200      4.10585      4.20000
    4751.400      4.10767      4.20000
    4755.600      4.11000      4.20000
    4759.800      4.11223      4.20000
    4764.000      4.11384      4.20000
    4768.200      4.11454      4.20000
    4772.400      4.11424      4.20000
    4776.600      4.11471      4.20000
    4780.800      4.11728      4.20000
    4785.000      4.11896      4.20000
    4789.200      4.11954      4.20000
    4793.400      4.12036      4.20000
    4797.600      4.12274      4.20000
    4801.800      4.12559      4.20000
    4806.000      4.12840      4.20000
    4810.200      4.13187      4.20000
    4814.400      4.13755      4.20000
    4818.600      4.14577      4.20000
    4822.800      4.15538      4.20000
    4827.000      4.16707      4.20000
    4831.200      4.18511      4.20000
    4835.400      4.21275      4.20000
    4839.600      4.25399      4.20000
    4843.800      4.31534      4.20000
    4848.000      4.40590      4.20000
    4852.200      4.53133      4.20000
    4856.400      4.66449      4.20000
    4860.600      4.74192      4.20000
    4864.800      4.70547      4.20000
    4869.000      4.58092      4.20000
    4873.200      4.44032      4.20000
    4877.400      4.33452      4.20000
    4881.600      4.26561      4.20000
    4885.800      4.22229      4.20000
    4890.000      4.19516      4.20000
    4894.200      4.17937      4.20000
    4898.400      4.16814      4.20000
    4902.600      4.15901      4.20000
    4906.800      4.15233      4.20000
    4911.000      4.14943      4.20000
    4915.200      4.15076      4.20000
    4919.400      4.15406      4.20000
    4923.600      4.15567      4.20000
    4927.800      4.15279      4.20000
    4932.000      4.14766      4.20000
    4936.200      4.14390      4.20000
    4940.400      4.14315      4.20000
    4944.600      4.14321      4.20000
    4948.800      4.14422      4.20000
    4953.000      4.14554      4.20000
    4957.200      4.14622      4.20000
    4961.400      4.14613      4.20000
    4965.600      4.14785      4.20000
    4969.800      4.15048      4.20000
    4974.000      4.15123      4.20000
    4978.200      4.15147      4.20000
    4982.400      4.15273      4.20000
    4986.600      4.15497      4.20000
    4990.800      4.15702      4.20000
    4995.000      4.15985      4.20000
    4999.200      4.16368      4.20000
    5003.400      4.16719      4.20000
    5007.600      4.16860      4.20000
    5011.800      4.17056      4.20000
    5016.000      4.17349      4.20000
    5020.200      4.17566      4.20000
    5024.400      4.17483      4.20000
    5028.600      4.17387      4.20000
    5032.800      4.17540      4.20000
    5037.000      4.17910      4.20000
    5041.200      4.18085      4.20000
    5045.400      4.18016      4.20000
    5049.600      4.17962      4.20000
    5053.800      4.18113      4.20000
    5058.000      4.18161      4.20000
    5062.200      4.18104      4.20000
    5066.400      4.18020      4.20000
    5070.600      4.17976      4.20000
    5074.800      4.17946      4.20000
    5079.000      4.17916      4.20000
    5083.200      4.17855      4.20000
    5087.400      4.17781      4.20000
    5091.600      4.17941      4.20000
    5095.800      4.18230      4.20000
    5100.000      4.18397      4.20000
    5104.200      4.18278      4.20000
    5108.400      4.18021      4.20000
    5112.600      4.17882      4.20000
    5116.800      4.17989      4.20000
    5121.000      4.18221      4.20000
    5125.200      4.18389      4.20000
    5129.400      4.18428      4.20000
    5133.600      4.18418      4.20000
    5137.800      4.18516      4.20000
    5142.000      4.18614      4.20000
    5146.200      4.18697      4.20000
    5150.400      4.18819      4.20000
    5154.600      4.18984      4.20000
    5158.800      4.19306      4.20000
    5163.000      4.19837      4.20000
    5167.200      4.20457      4.20000
    5171.400      4.20816      4.20000
    5175.600      4.20749      4.20000
    5179.800      4.20454      4.20000
    5184.000      4.20301      4.20000
    5188.200      4.20254      4.20000
    5192.400      4.20164      4.20000
    5196.600      4.20008      4.20000
    5200.800      4.19938      4.20000
    5205.000      4.19928      4.20000
