# LTT1788 from Hamuy,
# corrected for atmospheric absorption by ALG
#
    3000.000     16.09982      4.20000
    3004.200     16.57382      4.20000
    3008.400     18.08527      4.20000
    3016.800     17.44737      4.20000
    3021.000     16.49057      4.20000
    3025.200     16.08725      4.20000
    3029.400     16.01929      4.20000
    3033.600     16.19009      4.20000
    3037.800     16.34075      4.20000
    3042.000     16.31672      4.20000
    3046.200     16.09792      4.20000
    3050.400     15.82953      4.20000
    3054.600     15.66107      4.20000
    3058.800     15.94830      4.20000
    3063.000     16.63110      4.20000
    3067.200     16.48863      4.20000
    3071.400     16.13729      4.20000
    3075.600     15.89510      4.20000
    3079.800     15.78235      4.20000
    3084.000     15.75595      4.20000
    3088.200     15.69587      4.20000
    3092.400     15.64417      4.20000
    3096.600     15.64611      4.20000
    3100.800     15.67220      4.20000
    3105.000     15.70298      4.20000
    3109.200     15.63883      4.20000
    3113.400     15.47135      4.20000
    3117.600     15.33464      4.20000
    3121.800     15.28640      4.20000
    3126.000     15.28257      4.20000
    3130.200     15.26082      4.20000
    3134.400     15.23119      4.20000
    3138.600     15.17580      4.20000
    3142.800     15.10948      4.20000
    3147.000     15.06366      4.20000
    3151.200     15.05423      4.20000
    3155.400     15.05174      4.20000
    3159.600     15.01859      4.20000
    3163.800     14.94419      4.20000
    3168.000     14.87064      4.20000
    3172.200     14.81119      4.20000
    3176.400     14.78024      4.20000
    3180.600     14.78824      4.20000
    3184.800     14.78622      4.20000
    3189.000     14.76964      4.20000
    3193.200     14.75375      4.20000
    3197.400     14.74650      4.20000
    3201.600     14.72530      4.20000
    3205.800     14.70288      4.20000
    3210.000     14.68798      4.20000
    3214.200     14.65771      4.20000
    3218.400     14.64458      4.20000
    3222.600     14.65022      4.20000
    3226.800     14.65526      4.20000
    3231.000     14.64549      4.20000
    3235.200     14.61873      4.20000
    3239.400     14.58769      4.20000
    3243.600     14.56649      4.20000
    3247.800     14.55410      4.20000
    3252.000     14.53923      4.20000
    3256.200     14.51163      4.20000
    3260.400     14.47304      4.20000
    3264.600     14.44568      4.20000
    3268.800     14.43513      4.20000
    3273.000     14.43072      4.20000
    3277.200     14.41601      4.20000
    3281.400     14.39436      4.20000
    3285.600     14.38983      4.20000
    3289.800     14.40503      4.20000
    3294.000     14.40690      4.20000
    3298.200     14.39113      4.20000
    3302.400     14.36064      4.20000
    3306.600     14.33159      4.20000
    3310.800     14.32982      4.20000
    3315.000     14.34398      4.20000
    3319.200     14.35591      4.20000
    3323.400     14.35742      4.20000
    3327.600     14.36251      4.20000
    3331.800     14.36429      4.20000
    3336.000     14.35225      4.20000
    3340.200     14.32570      4.20000
    3344.400     14.30420      4.20000
    3348.600     14.29245      4.20000
    3352.800     14.29848      4.20000
    3357.000     14.32492      4.20000
    3361.200     14.33487      4.20000
    3365.400     14.32756      4.20000
    3369.600     14.31106      4.20000
    3373.800     14.29091      4.20000
    3378.000     14.29275      4.20000
    3382.200     14.31164      4.20000
    3386.400     14.32817      4.20000
    3390.600     14.32646      4.20000
    3394.800     14.30773      4.20000
    3399.000     14.28960      4.20000
    3403.200     14.28646      4.20000
    3407.400     14.29491      4.20000
    3411.600     14.29558      4.20000
    3415.800     14.28856      4.20000
    3420.000     14.28247      4.20000
    3424.200     14.27217      4.20000
    3428.400     14.26456      4.20000
    3432.600     14.25786      4.20000
    3436.800     14.24981      4.20000
    3441.000     14.25607      4.20000
    3445.200     14.27531      4.20000
    3449.400     14.29271      4.20000
    3453.600     14.29237      4.20000
    3457.800     14.28272      4.20000
    3462.000     14.26509      4.20000
    3466.200     14.24150      4.20000
    3470.400     14.21894      4.20000
    3474.600     14.20951      4.20000
    3478.800     14.21592      4.20000
    3483.000     14.22593      4.20000
    3487.200     14.21865      4.20000
    3491.400     14.21236      4.20000
    3495.600     14.21986      4.20000
    3499.800     14.23617      4.20000
    3504.000     14.23731      4.20000
    3508.200     14.23415      4.20000
    3512.400     14.23047      4.20000
    3516.600     14.22304      4.20000
    3520.800     14.21077      4.20000
    3525.000     14.18739      4.20000
    3529.200     14.15882      4.20000
    3533.400     14.13870      4.20000
    3537.600     14.13403      4.20000
    3541.800     14.14478      4.20000
    3546.000     14.16033      4.20000
    3550.200     14.16627      4.20000
    3554.400     14.16266      4.20000
    3558.600     14.15969      4.20000
    3562.800     14.16431      4.20000
    3567.000     14.17302      4.20000
    3571.200     14.17116      4.20000
    3575.400     14.16024      4.20000
    3579.600     14.14688      4.20000
    3583.800     14.13287      4.20000
    3588.000     14.11996      4.20000
    3592.200     14.11184      4.20000
    3596.400     14.11001      4.20000
    3600.600     14.11038      4.20000
    3604.800     14.11225      4.20000
    3609.000     14.10789      4.20000
    3613.200     14.09242      4.20000
    3617.400     14.07604      4.20000
    3621.600     14.06580      4.20000
    3625.800     14.06246      4.20000
    3630.000     14.06306      4.20000
    3634.200     14.06755      4.20000
    3638.400     14.07054      4.20000
    3642.600     14.06191      4.20000
    3646.800     14.03801      4.20000
    3651.000     14.02378      4.20000
    3655.200     14.02153      4.20000
    3659.400     14.02246      4.20000
    3663.600     14.01805      4.20000
    3667.800     14.01292      4.20000
    3672.000     14.01143      4.20000
    3676.200     14.01522      4.20000
    3680.400     14.02226      4.20000
    3684.600     14.02920      4.20000
    3688.800     14.02927      4.20000
    3693.000     14.01985      4.20000
    3697.200     14.00792      4.20000
    3701.400     14.00366      4.20000
    3705.600     14.00525      4.20000
    3709.800     14.00446      4.20000
    3714.000     13.99897      4.20000
    3718.200     13.99387      4.20000
    3722.400     13.99280      4.20000
    3726.600     13.99507      4.20000
    3730.800     13.99645      4.20000
    3735.000     13.99863      4.20000
    3739.200     13.99997      4.20000
    3743.400     13.99583      4.20000
    3747.600     13.99027      4.20000
    3751.800     13.97477      4.20000
    3756.000     13.95044      4.20000
    3760.200     13.93202      4.20000
    3764.400     13.92128      4.20000
    3768.600     13.91142      4.20000
    3772.800     13.89502      4.20000
    3777.000     13.87175      4.20000
    3781.200     13.85423      4.20000
    3785.400     13.84920      4.20000
    3789.600     13.85534      4.20000
    3793.800     13.86497      4.20000
    3798.000     13.86686      4.20000
    3802.200     13.85617      4.20000
    3806.400     13.83536      4.20000
    3810.600     13.81013      4.20000
    3814.800     13.79665      4.20000
    3819.000     13.80575      4.20000
    3823.200     13.83498      4.20000
    3827.400     13.86216      4.20000
    3831.600     13.88142      4.20000
    3835.800     13.88212      4.20000
    3840.000     13.85204      4.20000
    3844.200     13.80716      4.20000
    3848.400     13.76476      4.20000
    3852.600     13.73211      4.20000
    3856.800     13.70702      4.20000
    3861.000     13.69541      4.20000
    3865.200     13.69563      4.20000
    3869.400     13.70636      4.20000
    3873.600     13.73086      4.20000
    3877.800     13.75821      4.20000
    3882.000     13.78820      4.20000
    3886.200     13.81739      4.20000
    3890.400     13.82381      4.20000
    3894.600     13.79676      4.20000
    3898.800     13.75467      4.20000
    3903.000     13.72215      4.20000
    3907.200     13.69974      4.20000
    3911.400     13.68603      4.20000
    3915.600     13.68463      4.20000
    3919.800     13.70236      4.20000
    3924.000     13.74061      4.20000
    3928.200     13.78573      4.20000
    3932.400     13.81171      4.20000
    3936.600     13.79671      4.20000
    3940.800     13.75437      4.20000
    3945.000     13.71435      4.20000
    3949.200     13.69503      4.20000
    3953.400     13.69737      4.20000
    3957.600     13.73011      4.20000
    3961.800     13.78834      4.20000
    3966.000     13.84825      4.20000
    3970.200     13.86986      4.20000
    3974.400     13.82429      4.20000
    3978.600     13.74648      4.20000
    3982.800     13.68310      4.20000
    3987.000     13.64357      4.20000
    3991.200     13.62196      4.20000
    3995.400     13.61504      4.20000
    3999.600     13.61863      4.20000
    4003.800     13.61770      4.20000
    4008.000     13.60885      4.20000
    4012.200     13.59942      4.20000
    4016.400     13.59834      4.20000
    4020.600     13.60137      4.20000
    4024.800     13.59602      4.20000
    4029.000     13.58276      4.20000
    4033.200     13.57551      4.20000
    4037.400     13.57740      4.20000
    4041.600     13.58310      4.20000
    4045.800     13.58565      4.20000
    4050.000     13.58296      4.20000
    4054.200     13.58338      4.20000
    4058.400     13.58679      4.20000
    4062.600     13.58813      4.20000
    4066.800     13.58360      4.20000
    4071.000     13.57756      4.20000
    4075.200     13.57263      4.20000
    4079.400     13.57108      4.20000
    4083.600     13.57731      4.20000
    4087.800     13.59869      4.20000
    4092.000     13.63475      4.20000
    4096.200     13.67291      4.20000
    4100.400     13.68941      4.20000
    4104.600     13.67437      4.20000
    4108.800     13.63818      4.20000
    4113.000     13.60119      4.20000
    4117.200     13.57437      4.20000
    4121.400     13.56195      4.20000
    4125.600     13.56001      4.20000
    4129.800     13.55935      4.20000
    4134.000     13.55264      4.20000
    4138.200     13.54589      4.20000
    4142.400     13.54317      4.20000
    4146.600     13.53948      4.20000
    4150.800     13.53331      4.20000
    4155.000     13.52965      4.20000
    4159.200     13.53110      4.20000
    4163.400     13.53196      4.20000
    4167.600     13.52931      4.20000
    4171.800     13.52722      4.20000
    4176.000     13.52904      4.20000
    4180.200     13.52908      4.20000
    4184.400     13.52956      4.20000
    4188.600     13.53243      4.20000
    4192.800     13.53622      4.20000
    4197.000     13.53500      4.20000
    4201.200     13.53008      4.20000
    4205.400     13.52507      4.20000
    4209.600     13.52279      4.20000
    4213.800     13.52349      4.20000
    4218.000     13.52398      4.20000
    4222.200     13.52449      4.20000
    4226.400     13.52779      4.20000
    4230.600     13.52646      4.20000
    4234.800     13.52261      4.20000
    4239.000     13.52124      4.20000
    4243.200     13.52350      4.20000
    4247.400     13.51778      4.20000
    4251.600     13.50758      4.20000
    4255.800     13.50198      4.20000
    4260.000     13.50400      4.20000
    4264.200     13.50546      4.20000
    4268.400     13.50485      4.20000
    4272.600     13.50488      4.20000
    4276.800     13.50574      4.20000
    4281.000     13.50850      4.20000
    4285.200     13.51133      4.20000
    4289.400     13.51172      4.20000
    4293.600     13.51065      4.20000
    4297.800     13.51585      4.20000
    4302.000     13.52461      4.20000
    4306.200     13.52582      4.20000
    4310.400     13.51783      4.20000
    4314.600     13.51076      4.20000
    4318.800     13.51049      4.20000
    4323.000     13.51539      4.20000
    4327.200     13.53174      4.20000
    4331.400     13.56313      4.20000
    4335.600     13.59902      4.20000
    4339.800     13.61340      4.20000
    4344.000     13.59301      4.20000
    4348.200     13.55099      4.20000
    4352.400     13.51111      4.20000
    4356.600     13.48892      4.20000
    4360.800     13.47688      4.20000
    4365.000     13.46877      4.20000
    4369.200     13.46368      4.20000
    4373.400     13.46496      4.20000
    4377.600     13.46627      4.20000
    4381.800     13.46299      4.20000
    4386.000     13.45689      4.20000
    4390.200     13.45721      4.20000
    4394.400     13.45699      4.20000
    4398.600     13.45052      4.20000
    4402.800     13.44067      4.20000
    4407.000     13.43912      4.20000
    4411.200     13.43943      4.20000
    4415.400     13.43629      4.20000
    4419.600     13.43354      4.20000
    4423.800     13.43716      4.20000
    4428.000     13.44009      4.20000
    4432.200     13.43570      4.20000
    4436.400     13.42733      4.20000
    4440.600     13.42413      4.20000
    4444.800     13.42734      4.20000
    4449.000     13.43282      4.20000
    4453.200     13.43608      4.20000
    4457.400     13.43685      4.20000
    4461.600     13.43397      4.20000
    4465.800     13.42695      4.20000
    4470.000     13.41830      4.20000
    4474.200     13.40831      4.20000
    4478.400     13.40214      4.20000
    4482.600     13.40437      4.20000
    4486.800     13.40899      4.20000
    4491.000     13.40844      4.20000
    4495.200     13.40391      4.20000
    4499.400     13.40150      4.20000
    4503.600     13.39508      4.20000
    4507.800     13.38688      4.20000
    4512.000     13.38369      4.20000
    4516.200     13.38978      4.20000
    4520.400     13.39183      4.20000
    4524.600     13.38888      4.20000
    4528.800     13.38619      4.20000
    4533.000     13.38764      4.20000
    4537.200     13.39189      4.20000
    4541.400     13.39416      4.20000
    4545.600     13.39101      4.20000
    4549.800     13.38436      4.20000
    4554.000     13.38002      4.20000
    4558.200     13.38051      4.20000
    4562.400     13.38378      4.20000
    4566.600     13.38458      4.20000
    4570.800     13.38013      4.20000
    4575.000     13.37323      4.20000
    4579.200     13.36932      4.20000
    4583.400     13.37029      4.20000
    4587.600     13.37500      4.20000
    4591.800     13.37938      4.20000
    4596.000     13.37887      4.20000
    4600.200     13.37302      4.20000
    4604.400     13.36701      4.20000
    4608.600     13.36406      4.20000
    4612.800     13.36266      4.20000
    4617.000     13.36138      4.20000
    4621.200     13.36105      4.20000
    4625.400     13.36217      4.20000
    4629.600     13.36301      4.20000
    4633.800     13.36019      4.20000
    4638.000     13.35316      4.20000
    4642.200     13.34465      4.20000
    4646.400     13.33930      4.20000
    4650.600     13.33933      4.20000
    4654.800     13.34580      4.20000
    4659.000     13.35416      4.20000
    4663.200     13.35117      4.20000
    4667.400     13.34226      4.20000
    4671.600     13.33561      4.20000
    4675.800     13.33392      4.20000
    4680.000     13.32966      4.20000
    4684.200     13.32725      4.20000
    4688.400     13.33058      4.20000
    4692.600     13.33761      4.20000
    4696.800     13.34001      4.20000
    4701.000     13.33777      4.20000
    4705.200     13.33374      4.20000
    4709.400     13.32974      4.20000
    4713.600     13.32725      4.20000
    4717.800     13.32462      4.20000
    4722.000     13.32067      4.20000
    4726.200     13.31713      4.20000
    4730.400     13.31812      4.20000
    4734.600     13.32090      4.20000
    4738.800     13.32099      4.20000
    4743.000     13.31850      4.20000
    4747.200     13.31211      4.20000
    4751.400     13.30757      4.20000
    4755.600     13.31007      4.20000
    4759.800     13.31426      4.20000
    4764.000     13.31393      4.20000
    4768.200     13.31144      4.20000
    4772.400     13.31194      4.20000
    4776.600     13.30847      4.20000
    4780.800     13.30591      4.20000
    4785.000     13.30620      4.20000
    4789.200     13.30628      4.20000
    4793.400     13.30787      4.20000
    4797.600     13.30896      4.20000
    4801.800     13.30669      4.20000
    4806.000     13.30054      4.20000
    4810.200     13.29704      4.20000
    4814.400     13.29731      4.20000
    4818.600     13.29843      4.20000
    4822.800     13.29673      4.20000
    4827.000     13.29276      4.20000
    4831.200     13.29070      4.20000
    4835.400     13.29321      4.20000
    4839.600     13.29779      4.20000
    4843.800     13.30715      4.20000
    4848.000     13.32633      4.20000
    4852.200     13.35914      4.20000
    4856.400     13.40328      4.20000
    4860.600     13.43478      4.20000
    4864.800     13.42847      4.20000
    4869.000     13.38170      4.20000
    4873.200     13.32762      4.20000
    4877.400     13.29404      4.20000
    4881.600     13.28351      4.20000
    4885.800     13.28003      4.20000
    4890.000     13.27864      4.20000
    4894.200     13.27354      4.20000
    4898.400     13.26603      4.20000
    4902.600     13.26394      4.20000
    4906.800     13.26809      4.20000
    4911.000     13.27177      4.20000
    4915.200     13.26969      4.20000
    4919.400     13.26431      4.20000
    4923.600     13.25776      4.20000
    4927.800     13.25318      4.20000
    4932.000     13.25158      4.20000
    4936.200     13.24990      4.20000
    4940.400     13.24608      4.20000
    4944.600     13.24265      4.20000
    4948.800     13.24323      4.20000
    4953.000     13.24661      4.20000
    4957.200     13.24977      4.20000
    4961.400     13.25008      4.20000
    4965.600     13.24691      4.20000
    4969.800     13.24207      4.20000
    4974.000     13.23993      4.20000
    4978.200     13.24067      4.20000
    4982.400     13.24013      4.20000
    4986.600     13.23653      4.20000
    4990.800     13.23340      4.20000
    4995.000     13.23272      4.20000
    4999.200     13.23238      4.20000
    5003.400     13.23351      4.20000
    5007.600     13.23574      4.20000
    5011.800     13.23737      4.20000
    5016.000     13.23641      4.20000
    5020.200     13.23582      4.20000
    5024.400     13.23418      4.20000
    5028.600     13.22996      4.20000
    5032.800     13.22636      4.20000
    5037.000     13.22797      4.20000
    5041.200     13.23110      4.20000
    5045.400     13.22968      4.20000
    5049.600     13.22615      4.20000
    5053.800     13.22372      4.20000
    5058.000     13.22210      4.20000
    5062.200     13.21929      4.20000
    5066.400     13.21795      4.20000
    5070.600     13.21911      4.20000
    5074.800     13.22216      4.20000
    5079.000     13.22513      4.20000
    5083.200     13.22568      4.20000
    5087.400     13.22247      4.20000
    5091.600     13.21816      4.20000
    5095.800     13.21789      4.20000
    5100.000     13.21838      4.20000
    5104.200     13.21549      4.20000
    5108.400     13.20929      4.20000
    5112.600     13.20562      4.20000
    5116.800     13.20643      4.20000
    5121.000     13.20826      4.20000
    5125.200     13.20684      4.20000
    5129.400     13.20247      4.20000
    5133.600     13.19909      4.20000
    5137.800     13.19823      4.20000
    5142.000     13.19838      4.20000
    5146.200     13.19690      4.20000
