# LTT3864 from Hamuy,
# corrected for atmospheric absorption by ALG
#
    3000.000     15.73531      4.20000
    3004.200     16.02585      4.20000
    3008.400     16.09256      4.20000
    3012.600     15.95774      4.20000
    3016.800     15.98018      4.20000
    3021.000     16.04946      4.20000
    3025.200     15.83033      4.20000
    3029.400     15.53535      4.20000
    3033.600     15.40666      4.20000
    3037.800     15.37751      4.20000
    3042.000     15.34166      4.20000
    3046.200     15.29186      4.20000
    3050.400     15.24126      4.20000
    3054.600     15.21330      4.20000
    3058.800     15.23604      4.20000
    3063.000     15.28525      4.20000
    3067.200     15.31718      4.20000
    3071.400     15.31516      4.20000
    3075.600     15.27708      4.20000
    3079.800     15.17834      4.20000
    3084.000     15.00753      4.20000
    3088.200     14.86116      4.20000
    3092.400     14.80714      4.20000
    3096.600     14.79509      4.20000
    3100.800     14.77553      4.20000
    3105.000     14.73492      4.20000
    3109.200     14.66234      4.20000
    3113.400     14.59780      4.20000
    3117.600     14.57391      4.20000
    3121.800     14.57349      4.20000
    3126.000     14.58028      4.20000
    3130.200     14.55969      4.20000
    3134.400     14.48635      4.20000
    3138.600     14.39012      4.20000
    3142.800     14.29758      4.20000
    3147.000     14.23493      4.20000
    3151.200     14.21635      4.20000
    3155.400     14.20857      4.20000
    3159.600     14.18637      4.20000
    3163.800     14.16111      4.20000
    3168.000     14.13993      4.20000
    3172.200     14.12442      4.20000
    3176.400     14.11162      4.20000
    3180.600     14.07688      4.20000
    3184.800     14.01112      4.20000
    3189.000     13.93797      4.20000
    3193.200     13.87667      4.20000
    3197.400     13.84464      4.20000
    3201.600     13.84549      4.20000
    3205.800     13.85447      4.20000
    3210.000     13.85435      4.20000
    3214.200     13.84436      4.20000
    3218.400     13.82481      4.20000
    3222.600     13.79849      4.20000
    3226.800     13.77132      4.20000
    3231.000     13.75292      4.20000
    3235.200     13.74350      4.20000
    3239.400     13.73132      4.20000
    3243.600     13.70902      4.20000
    3247.800     13.67338      4.20000
    3252.000     13.63419      4.20000
    3256.200     13.61559      4.20000
    3260.400     13.61844      4.20000
    3264.600     13.62141      4.20000
    3268.800     13.61355      4.20000
    3273.000     13.59291      4.20000
    3277.200     13.56460      4.20000
    3281.400     13.53986      4.20000
    3285.600     13.52389      4.20000
    3289.800     13.51762      4.20000
    3294.000     13.51793      4.20000
    3298.200     13.51810      4.20000
    3302.400     13.51729      4.20000
    3306.600     13.51886      4.20000
    3310.800     13.52057      4.20000
    3315.000     13.51666      4.20000
    3319.200     13.51193      4.20000
    3323.400     13.51690      4.20000
    3327.600     13.52400      4.20000
    3331.800     13.51792      4.20000
    3336.000     13.50199      4.20000
    3340.200     13.48587      4.20000
    3344.400     13.47809      4.20000
    3348.600     13.48697      4.20000
    3352.800     13.50586      4.20000
    3357.000     13.52282      4.20000
    3361.200     13.53147      4.20000
    3365.400     13.52751      4.20000
    3369.600     13.51254      4.20000
    3373.800     13.48996      4.20000
    3378.000     13.47228      4.20000
    3382.200     13.47297      4.20000
    3386.400     13.47904      4.20000
    3390.600     13.47344      4.20000
    3394.800     13.46362      4.20000
    3399.000     13.45916      4.20000
    3403.200     13.45243      4.20000
    3407.400     13.43588      4.20000
    3411.600     13.42215      4.20000
    3415.800     13.42254      4.20000
    3420.000     13.42909      4.20000
    3424.200     13.43396      4.20000
    3428.400     13.43779      4.20000
    3432.600     13.44053      4.20000
    3436.800     13.44036      4.20000
    3441.000     13.43620      4.20000
    3445.200     13.42692      4.20000
    3449.400     13.41289      4.20000
    3453.600     13.40274      4.20000
    3457.800     13.40196      4.20000
    3462.000     13.40199      4.20000
    3466.200     13.39730      4.20000
    3470.400     13.39591      4.20000
    3474.600     13.40144      4.20000
    3478.800     13.40290      4.20000
    3483.000     13.39558      4.20000
    3487.200     13.39308      4.20000
    3491.400     13.40032      4.20000
    3495.600     13.40123      4.20000
    3499.800     13.38861      4.20000
    3504.000     13.37281      4.20000
    3508.200     13.36081      4.20000
    3512.400     13.35449      4.20000
    3516.600     13.35391      4.20000
    3520.800     13.35611      4.20000
    3525.000     13.35513      4.20000
    3529.200     13.33973      4.20000
    3533.400     13.31202      4.20000
    3537.600     13.29157      4.20000
    3541.800     13.28461      4.20000
    3546.000     13.28251      4.20000
    3550.200     13.28263      4.20000
    3554.400     13.28707      4.20000
    3558.600     13.29804      4.20000
    3562.800     13.31949      4.20000
    3567.000     13.34471      4.20000
    3571.200     13.35588      4.20000
    3575.400     13.34927      4.20000
    3579.600     13.33361      4.20000
    3583.800     13.31577      4.20000
    3588.000     13.30177      4.20000
    3592.200     13.29255      4.20000
    3596.400     13.28465      4.20000
    3600.600     13.27923      4.20000
    3604.800     13.28067      4.20000
    3609.000     13.28146      4.20000
    3613.200     13.26756      4.20000
    3617.400     13.24654      4.20000
    3621.600     13.23540      4.20000
    3625.800     13.23338      4.20000
    3630.000     13.23273      4.20000
    3634.200     13.23182      4.20000
    3638.400     13.23121      4.20000
    3642.600     13.22427      4.20000
    3646.800     13.20296      4.20000
    3651.000     13.17688      4.20000
    3655.200     13.15967      4.20000
    3659.400     13.15067      4.20000
    3663.600     13.14599      4.20000
    3667.800     13.14623      4.20000
    3672.000     13.15194      4.20000
    3676.200     13.15841      4.20000
    3680.400     13.16089      4.20000
    3684.600     13.15566      4.20000
    3688.800     13.13945      4.20000
    3693.000     13.12607      4.20000
    3697.200     13.12983      4.20000
    3701.400     13.14024      4.20000
    3705.600     13.14592      4.20000
    3709.800     13.14523      4.20000
    3714.000     13.13687      4.20000
    3718.200     13.12842      4.20000
    3722.400     13.12688      4.20000
    3726.600     13.13167      4.20000
    3730.800     13.14114      4.20000
    3735.000     13.14711      4.20000
    3739.200     13.14230      4.20000
    3743.400     13.12735      4.20000
    3747.600     13.10446      4.20000
    3751.800     13.07810      4.20000
    3756.000     13.05304      4.20000
    3760.200     13.03748      4.20000
    3764.400     13.03323      4.20000
    3768.600     13.01919      4.20000
    3772.800     12.98553      4.20000
    3777.000     12.95241      4.20000
    3781.200     12.93385      4.20000
    3785.400     12.93551      4.20000
    3789.600     12.95567      4.20000
    3793.800     12.97358      4.20000
    3798.000     12.97339      4.20000
    3802.200     12.95108      4.20000
    3806.400     12.91418      4.20000
    3810.600     12.88753      4.20000
    3814.800     12.88546      4.20000
    3819.000     12.90862      4.20000
    3823.200     12.95129      4.20000
    3827.400     12.99689      4.20000
    3831.600     13.02537      4.20000
    3835.800     13.01540      4.20000
    3840.000     12.96702      4.20000
    3844.200     12.90398      4.20000
    3848.400     12.84451      4.20000
    3852.600     12.80058      4.20000
    3856.800     12.77609      4.20000
    3861.000     12.76760      4.20000
    3865.200     12.77311      4.20000
    3869.400     12.79134      4.20000
    3873.600     12.82005      4.20000
    3877.800     12.85651      4.20000
    3882.000     12.89335      4.20000
    3886.200     12.92071      4.20000
    3890.400     12.92626      4.20000
    3894.600     12.89760      4.20000
    3898.800     12.85038      4.20000
    3903.000     12.81377      4.20000
    3907.200     12.79506      4.20000
    3911.400     12.79099      4.20000
    3915.600     12.80815      4.20000
    3919.800     12.85567      4.20000
    3924.000     12.92540      4.20000
    3928.200     13.00168      4.20000
    3932.400     13.04668      4.20000
    3936.600     13.01507      4.20000
    3940.800     12.93767      4.20000
    3945.000     12.86458      4.20000
    3949.200     12.82350      4.20000
    3953.400     12.83455      4.20000
    3957.600     12.88692      4.20000
    3961.800     12.96112      4.20000
    3966.000     13.01903      4.20000
    3970.200     13.01442      4.20000
    3974.400     12.95344      4.20000
    3978.600     12.85907      4.20000
    3982.800     12.76840      4.20000
    3987.000     12.71094      4.20000
    3991.200     12.67912      4.20000
    3995.400     12.66393      4.20000
    3999.600     12.65613      4.20000
    4003.800     12.64558      4.20000
    4008.000     12.63367      4.20000
    4012.200     12.62252      4.20000
    4016.400     12.61427      4.20000
    4020.600     12.61111      4.20000
    4024.800     12.61484      4.20000
    4029.000     12.62581      4.20000
    4033.200     12.63431      4.20000
    4037.400     12.63255      4.20000
    4041.600     12.62428      4.20000
    4045.800     12.61397      4.20000
    4050.000     12.60892      4.20000
    4054.200     12.61356      4.20000
    4058.400     12.61978      4.20000
    4062.600     12.62182      4.20000
    4066.800     12.62293      4.20000
    4071.000     12.62528      4.20000
    4075.200     12.62877      4.20000
    4079.400     12.63389      4.20000
    4083.600     12.64030      4.20000
    4087.800     12.65063      4.20000
    4092.000     12.67755      4.20000
    4096.200     12.72013      4.20000
    4100.400     12.74786      4.20000
    4104.600     12.74221      4.20000
    4108.800     12.70931      4.20000
    4113.000     12.66319      4.20000
    4117.200     12.62719      4.20000
    4121.400     12.60951      4.20000
    4125.600     12.59952      4.20000
    4129.800     12.59131      4.20000
    4134.000     12.58359      4.20000
    4138.200     12.57595      4.20000
    4142.400     12.57061      4.20000
    4146.600     12.56678      4.20000
    4150.800     12.56011      4.20000
    4155.000     12.55249      4.20000
    4159.200     12.55139      4.20000
    4163.400     12.55706      4.20000
    4167.600     12.56415      4.20000
    4171.800     12.56917      4.20000
    4176.000     12.56964      4.20000
    4180.200     12.56711      4.20000
    4184.400     12.56641      4.20000
    4188.600     12.56716      4.20000
    4192.800     12.56590      4.20000
    4197.000     12.56270      4.20000
    4201.200     12.55943      4.20000
    4205.400     12.55665      4.20000
    4209.600     12.55434      4.20000
    4213.800     12.55356      4.20000
    4218.000     12.55570      4.20000
    4222.200     12.55936      4.20000
    4226.400     12.56222      4.20000
    4230.600     12.56234      4.20000
    4234.800     12.55784      4.20000
    4239.000     12.55186      4.20000
    4243.200     12.54908      4.20000
    4247.400     12.54776      4.20000
    4251.600     12.54478      4.20000
    4255.800     12.54114      4.20000
    4260.000     12.53828      4.20000
    4264.200     12.53795      4.20000
    4268.400     12.54213      4.20000
    4272.600     12.54748      4.20000
    4276.800     12.55006      4.20000
    4281.000     12.55258      4.20000
    4285.200     12.55785      4.20000
    4289.400     12.56855      4.20000
    4293.600     12.58718      4.20000
    4297.800     12.60564      4.20000
    4302.000     12.61564      4.20000
    4306.200     12.61510      4.20000
    4310.400     12.60386      4.20000
    4314.600     12.58669      4.20000
    4318.800     12.56957      4.20000
    4323.000     12.56451      4.20000
    4327.200     12.57994      4.20000
    4331.400     12.61265      4.20000
    4335.600     12.65546      4.20000
    4339.800     12.68160      4.20000
    4344.000     12.67000      4.20000
    4348.200     12.63172      4.20000
    4352.400     12.58185      4.20000
    4356.600     12.53984      4.20000
    4360.800     12.51735      4.20000
    4365.000     12.50636      4.20000
    4369.200     12.50061      4.20000
    4373.400     12.49860      4.20000
    4377.600     12.49822      4.20000
    4381.800     12.49880      4.20000
    4386.000     12.49909      4.20000
    4390.200     12.49570      4.20000
    4394.400     12.48845      4.20000
    4398.600     12.48294      4.20000
    4402.800     12.48119      4.20000
    4407.000     12.47941      4.20000
    4411.200     12.47609      4.20000
    4415.400     12.47269      4.20000
    4419.600     12.46998      4.20000
    4423.800     12.46816      4.20000
    4428.000     12.46699      4.20000
    4432.200     12.46544      4.20000
    4436.400     12.46362      4.20000
    4440.600     12.46283      4.20000
    4444.800     12.46338      4.20000
    4449.000     12.46495      4.20000
    4453.200     12.46563      4.20000
    4457.400     12.46183      4.20000
    4461.600     12.45499      4.20000
    4465.800     12.45054      4.20000
    4470.000     12.44902      4.20000
    4474.200     12.44765      4.20000
    4478.400     12.44521      4.20000
    4482.600     12.44128      4.20000
    4486.800     12.43613      4.20000
    4491.000     12.43036      4.20000
    4495.200     12.42597      4.20000
    4499.400     12.42581      4.20000
    4503.600     12.42717      4.20000
    4507.800     12.42479      4.20000
    4512.000     12.41930      4.20000
    4516.200     12.41331      4.20000
    4520.400     12.41036      4.20000
    4524.600     12.41465      4.20000
    4528.800     12.42108      4.20000
    4533.000     12.42143      4.20000
    4537.200     12.41817      4.20000
    4541.400     12.41632      4.20000
    4545.600     12.41653      4.20000
    4549.800     12.41904      4.20000
    4554.000     12.41940      4.20000
    4558.200     12.41227      4.20000
    4562.400     12.40247      4.20000
    4566.600     12.39599      4.20000
    4570.800     12.39335      4.20000
    4575.000     12.39458      4.20000
    4579.200     12.39658      4.20000
    4583.400     12.39574      4.20000
    4587.600     12.39327      4.20000
    4591.800     12.39074      4.20000
    4596.000     12.38694      4.20000
    4600.200     12.38101      4.20000
    4604.400     12.37674      4.20000
    4608.600     12.37719      4.20000
    4612.800     12.37805      4.20000
    4617.000     12.37567      4.20000
    4621.200     12.37307      4.20000
    4625.400     12.37245      4.20000
    4629.600     12.37085      4.20000
    4633.800     12.36659      4.20000
    4638.000     12.36399      4.20000
    4642.200     12.36554      4.20000
    4646.400     12.36679      4.20000
    4650.600     12.36481      4.20000
    4654.800     12.36116      4.20000
    4659.000     12.35749      4.20000
    4663.200     12.35639      4.20000
    4667.400     12.35867      4.20000
    4671.600     12.36009      4.20000
    4675.800     12.35830      4.20000
    4680.000     12.35539      4.20000
    4684.200     12.35266      4.20000
    4688.400     12.34971      4.20000
    4692.600     12.34741      4.20000
    4696.800     12.34874      4.20000
    4701.000     12.35356      4.20000
    4705.200     12.35699      4.20000
    4709.400     12.35634      4.20000
    4713.600     12.35190      4.20000
    4717.800     12.34545      4.20000
    4722.000     12.34105      4.20000
    4726.200     12.33964      4.20000
    4730.400     12.33836      4.20000
    4734.600     12.33677      4.20000
    4738.800     12.33703      4.20000
    4743.000     12.33831      4.20000
    4747.200     12.33693      4.20000
    4751.400     12.33375      4.20000
    4755.600     12.33352      4.20000
    4759.800     12.33606      4.20000
    4764.000     12.33756      4.20000
    4768.200     12.33676      4.20000
    4772.400     12.33412      4.20000
    4776.600     12.33007      4.20000
    4780.800     12.32509      4.20000
    4785.000     12.32129      4.20000
    4789.200     12.32166      4.20000
    4793.400     12.32436      4.20000
    4797.600     12.32515      4.20000
    4801.800     12.32353      4.20000
    4806.000     12.32043      4.20000
    4810.200     12.31762      4.20000
    4814.400     12.31755      4.20000
    4818.600     12.31782      4.20000
    4822.800     12.31457      4.20000
    4827.000     12.30928      4.20000
    4831.200     12.30507      4.20000
    4835.400     12.30429      4.20000
    4839.600     12.30922      4.20000
    4843.800     12.32199      4.20000
    4848.000     12.34313      4.20000
    4852.200     12.37694      4.20000
    4856.400     12.42833      4.20000
    4860.600     12.47392      4.20000
    4864.800     12.48489      4.20000
    4869.000     12.46124      4.20000
    4873.200     12.41008      4.20000
    4877.400     12.35861      4.20000
    4881.600     12.33134      4.20000
    4885.800     12.31933      4.20000
    4890.000     12.31335      4.20000
    4894.200     12.30842      4.20000
    4898.400     12.29911      4.20000
    4902.600     12.28993      4.20000
    4906.800     12.28519      4.20000
    4911.000     12.28473      4.20000
    4915.200     12.28810      4.20000
    4919.400     12.29130      4.20000
    4923.600     12.29096      4.20000
    4927.800     12.28768      4.20000
    4932.000     12.28256      4.20000
    4936.200     12.27868      4.20000
    4940.400     12.27791      4.20000
    4944.600     12.27692      4.20000
    4948.800     12.27362      4.20000
    4953.000     12.27008      4.20000
    4957.200     12.26765      4.20000
    4961.400     12.26640      4.20000
    4965.600     12.26595      4.20000
    4969.800     12.26429      4.20000
    4974.000     12.26107      4.20000
    4978.200     12.25989      4.20000
    4982.400     12.26203      4.20000
    4986.600     12.26452      4.20000
    4990.800     12.26568      4.20000
    4995.000     12.26562      4.20000
    4999.200     12.26483      4.20000
    5003.400     12.26458      4.20000
    5007.600     12.26533      4.20000
    5011.800     12.26641      4.20000
    5016.000     12.26695      4.20000
    5020.200     12.26569      4.20000
    5024.400     12.26276      4.20000
    5028.600     12.25984      4.20000
    5032.800     12.25769      4.20000
    5037.000     12.25613      4.20000
    5041.200     12.25490      4.20000
    5045.400     12.25361      4.20000
    5049.600     12.25175      4.20000
    5053.800     12.24880      4.20000
    5058.000     12.24496      4.20000
    5062.200     12.24085      4.20000
    5066.400     12.23799      4.20000
    5070.600     12.23851      4.20000
    5074.800     12.24163      4.20000
    5079.000     12.24498      4.20000
    5083.200     12.24645      4.20000
    5087.400     12.24404      4.20000
    5091.600     12.23900      4.20000
    5095.800     12.23413      4.20000
    5100.000     12.23068      4.20000
    5104.200     12.22939      4.20000
    5108.400     12.22869      4.20000
    5112.600     12.22611      4.20000
    5116.800     12.22259      4.20000
    5121.000     12.21993      4.20000
    5125.200     12.21997      4.20000
    5129.400     12.22455      4.20000
    5133.600     12.23059      4.20000
    5137.800     12.23386      4.20000
    5142.000     12.23349      4.20000
