# LTT9491 from Hamuy,
# corrected for atmospheric absorption by ALG
#
    3004.200     17.34507      4.20000
    3008.400     17.24781      4.20000
    3012.600     17.08897      4.20000
    3016.800     17.05753      4.20000
    3021.000     17.01947      4.20000
    3025.200     16.89216      4.20000
    3029.400     16.69241      4.20000
    3033.600     16.43038      4.20000
    3037.800     16.22850      4.20000
    3042.000     16.10679      4.20000
    3046.200     16.02038      4.20000
    3050.400     15.94853      4.20000
    3054.600     15.87330      4.20000
    3058.800     15.79062      4.20000
    3063.000     15.70610      4.20000
    3067.200     15.61034      4.20000
    3071.400     15.50667      4.20000
    3075.600     15.40843      4.20000
    3079.800     15.33035      4.20000
    3084.000     15.26832      4.20000
    3088.200     15.21347      4.20000
    3092.400     15.15836      4.20000
    3096.600     15.10151      4.20000
    3100.800     15.04574      4.20000
    3105.000     14.99723      4.20000
    3109.200     14.95610      4.20000
    3113.400     14.90843      4.20000
    3117.600     14.85988      4.20000
    3121.800     14.81460      4.20000
    3126.000     14.77066      4.20000
    3130.200     14.72261      4.20000
    3134.400     14.67797      4.20000
    3138.600     14.63946      4.20000
    3142.800     14.60339      4.20000
    3147.000     14.57322      4.20000
    3151.200     14.54694      4.20000
    3155.400     14.52085      4.20000
    3159.600     14.49318      4.20000
    3163.800     14.46960      4.20000
    3168.000     14.44633      4.20000
    3172.200     14.42031      4.20000
    3176.400     14.39621      4.20000
    3180.600     14.37267      4.20000
    3184.800     14.35103      4.20000
    3189.000     14.33353      4.20000
    3193.200     14.32045      4.20000
    3197.400     14.30308      4.20000
    3201.600     14.28119      4.20000
    3205.800     14.26053      4.20000
    3210.000     14.24333      4.20000
    3214.200     14.22910      4.20000
    3218.400     14.21779      4.20000
    3222.600     14.20876      4.20000
    3226.800     14.19682      4.20000
    3231.000     14.18397      4.20000
    3235.200     14.17322      4.20000
    3239.400     14.16535      4.20000
    3243.600     14.15850      4.20000
    3247.800     14.15335      4.20000
    3252.000     14.14948      4.20000
    3256.200     14.14425      4.20000
    3260.400     14.13611      4.20000
    3264.600     14.12854      4.20000
    3268.800     14.12486      4.20000
    3273.000     14.12371      4.20000
    3277.200     14.11582      4.20000
    3281.400     14.10547      4.20000
    3285.600     14.09950      4.20000
    3289.800     14.09278      4.20000
    3294.000     14.08820      4.20000
    3298.200     14.08694      4.20000
    3302.400     14.08791      4.20000
    3306.600     14.08961      4.20000
    3310.800     14.08782      4.20000
    3315.000     14.08215      4.20000
    3319.200     14.07589      4.20000
    3323.400     14.07096      4.20000
    3327.600     14.06870      4.20000
    3331.800     14.06819      4.20000
    3336.000     14.06657      4.20000
    3340.200     14.06145      4.20000
    3344.400     14.05593      4.20000
    3348.600     14.05235      4.20000
    3352.800     14.04917      4.20000
    3357.000     14.04521      4.20000
    3361.200     14.04443      4.20000
    3365.400     14.04826      4.20000
    3369.600     14.05044      4.20000
    3373.800     14.05254      4.20000
    3378.000     14.05260      4.20000
    3382.200     14.04862      4.20000
    3386.400     14.04368      4.20000
    3390.600     14.04073      4.20000
    3394.800     14.04160      4.20000
    3399.000     14.04533      4.20000
    3403.200     14.04729      4.20000
    3407.400     14.04815      4.20000
    3411.600     14.05086      4.20000
    3415.800     14.05716      4.20000
    3420.000     14.06343      4.20000
    3424.200     14.06914      4.20000
    3428.400     14.07379      4.20000
    3432.600     14.07572      4.20000
    3436.800     14.07319      4.20000
    3441.000     14.07006      4.20000
    3445.200     14.07020      4.20000
    3449.400     14.07315      4.20000
    3453.600     14.07545      4.20000
    3457.800     14.07506      4.20000
    3462.000     14.07205      4.20000
    3466.200     14.06808      4.20000
    3470.400     14.06524      4.20000
    3474.600     14.06436      4.20000
    3478.800     14.06453      4.20000
    3483.000     14.06346      4.20000
    3487.200     14.06402      4.20000
    3491.400     14.06484      4.20000
    3495.600     14.06245      4.20000
    3499.800     14.05837      4.20000
    3504.000     14.05310      4.20000
    3508.200     14.04942      4.20000
    3512.400     14.04990      4.20000
    3516.600     14.05049      4.20000
    3520.800     14.04913      4.20000
    3525.000     14.04669      4.20000
    3529.200     14.04557      4.20000
    3533.400     14.04502      4.20000
    3537.600     14.04388      4.20000
    3541.800     14.04277      4.20000
    3546.000     14.04380      4.20000
    3550.200     14.04313      4.20000
    3554.400     14.04039      4.20000
    3558.600     14.03767      4.20000
    3562.800     14.03679      4.20000
    3567.000     14.03818      4.20000
    3571.200     14.03783      4.20000
    3575.400     14.03371      4.20000
    3579.600     14.03233      4.20000
    3583.800     14.03292      4.20000
    3588.000     14.03325      4.20000
    3592.200     14.03206      4.20000
    3596.400     14.03058      4.20000
    3600.600     14.03029      4.20000
    3604.800     14.03019      4.20000
    3609.000     14.02792      4.20000
    3613.200     14.02429      4.20000
    3617.400     14.02188      4.20000
    3621.600     14.02051      4.20000
    3625.800     14.01741      4.20000
    3630.000     14.01575      4.20000
    3634.200     14.01479      4.20000
    3638.400     14.01277      4.20000
    3642.600     14.00963      4.20000
    3646.800     14.00894      4.20000
    3651.000     14.00955      4.20000
    3655.200     14.00996      4.20000
    3659.400     14.01250      4.20000
    3663.600     14.01523      4.20000
    3667.800     14.01615      4.20000
    3672.000     14.01434      4.20000
    3676.200     14.01061      4.20000
    3680.400     14.00976      4.20000
    3684.600     14.01228      4.20000
    3688.800     14.01485      4.20000
    3693.000     14.01515      4.20000
    3697.200     14.01628      4.20000
    3701.400     14.01814      4.20000
    3705.600     14.01741      4.20000
    3709.800     14.01564      4.20000
    3714.000     14.01443      4.20000
    3718.200     14.01421      4.20000
    3722.400     14.01434      4.20000
    3726.600     14.01579      4.20000
    3730.800     14.01746      4.20000
    3735.000     14.01748      4.20000
    3739.200     14.01482      4.20000
    3743.400     14.01077      4.20000
    3747.600     14.00921      4.20000
    3751.800     14.01144      4.20000
    3756.000     14.01286      4.20000
    3760.200     14.01282      4.20000
    3764.400     14.01185      4.20000
    3768.600     14.01092      4.20000
    3772.800     14.01079      4.20000
    3777.000     14.00919      4.20000
    3781.200     14.00808      4.20000
    3785.400     14.01074      4.20000
    3789.600     14.01373      4.20000
    3793.800     14.01460      4.20000
    3798.000     14.01388      4.20000
    3802.200     14.01408      4.20000
    3806.400     14.01547      4.20000
    3810.600     14.01431      4.20000
    3814.800     14.00955      4.20000
    3819.000     14.00488      4.20000
    3823.200     14.00429      4.20000
    3827.400     14.00288      4.20000
    3831.600     13.99891      4.20000
    3835.800     13.99956      4.20000
    3840.000     14.00097      4.20000
    3844.200     14.00043      4.20000
    3848.400     13.99794      4.20000
    3852.600     13.99615      4.20000
    3856.800     13.99507      4.20000
    3861.000     13.99617      4.20000
    3865.200     14.00150      4.20000
    3869.400     14.01156      4.20000
    3873.600     14.02103      4.20000
    3877.800     14.02809      4.20000
    3882.000     14.03317      4.20000
    3886.200     14.03160      4.20000
    3890.400     14.02462      4.20000
    3894.600     14.01573      4.20000
    3898.800     14.00870      4.20000
    3903.000     14.00742      4.20000
    3907.200     14.00699      4.20000
    3911.400     14.00453      4.20000
    3915.600     14.00338      4.20000
    3919.800     14.00529      4.20000
    3924.000     14.00815      4.20000
    3928.200     14.00896      4.20000
    3932.400     14.00703      4.20000
    3936.600     14.00633      4.20000
    3940.800     14.00719      4.20000
    3945.000     14.00774      4.20000
    3949.200     14.00692      4.20000
    3953.400     14.00475      4.20000
    3957.600     14.00236      4.20000
    3961.800     14.00191      4.20000
    3966.000     14.00616      4.20000
    3970.200     14.00996      4.20000
    3974.400     14.01101      4.20000
    3978.600     14.01106      4.20000
    3982.800     14.01163      4.20000
    3987.000     14.01191      4.20000
    3991.200     14.01202      4.20000
    3995.400     14.01255      4.20000
    3999.600     14.00941      4.20000
    4003.800     14.00832      4.20000
    4008.000     14.01232      4.20000
    4012.200     14.01619      4.20000
    4016.400     14.01290      4.20000
    4020.600     14.00554      4.20000
    4024.800     13.99956      4.20000
    4029.000     13.99572      4.20000
    4033.200     13.99163      4.20000
    4037.400     13.98715      4.20000
    4041.600     13.98453      4.20000
    4045.800     13.98668      4.20000
    4050.000     13.98816      4.20000
    4054.200     13.98749      4.20000
    4058.400     13.98699      4.20000
    4062.600     13.98873      4.20000
    4066.800     13.98922      4.20000
    4071.000     13.98706      4.20000
    4075.200     13.98414      4.20000
    4079.400     13.98293      4.20000
    4083.600     13.98354      4.20000
    4087.800     13.98626      4.20000
    4092.000     13.99177      4.20000
    4096.200     13.99937      4.20000
    4100.400     14.00323      4.20000
    4104.600     14.00195      4.20000
    4108.800     14.00084      4.20000
    4113.000     13.99827      4.20000
    4117.200     13.99540      4.20000
    4121.400     13.99452      4.20000
    4125.600     13.99673      4.20000
    4129.800     13.99609      4.20000
    4134.000     13.99487      4.20000
    4138.200     13.99682      4.20000
    4142.400     13.99883      4.20000
    4146.600     13.99985      4.20000
    4150.800     14.00103      4.20000
    4155.000     14.00365      4.20000
    4159.200     14.00605      4.20000
    4163.400     14.00606      4.20000
    4167.600     14.00452      4.20000
    4171.800     14.00366      4.20000
    4176.000     14.00196      4.20000
    4180.200     14.00036      4.20000
    4184.400     14.00160      4.20000
    4188.600     14.00686      4.20000
    4192.800     14.00815      4.20000
    4197.000     14.00467      4.20000
    4201.200     14.00032      4.20000
    4205.400     13.99926      4.20000
    4209.600     13.99854      4.20000
    4213.800     13.99701      4.20000
    4218.000     13.99574      4.20000
    4222.200     13.99698      4.20000
    4226.400     14.00098      4.20000
    4230.600     14.00269      4.20000
    4234.800     13.99956      4.20000
    4239.000     13.99864      4.20000
    4243.200     13.99972      4.20000
    4247.400     14.00183      4.20000
    4251.600     14.00514      4.20000
    4255.800     14.01171      4.20000
    4260.000     14.01654      4.20000
    4264.200     14.01469      4.20000
    4268.400     14.00656      4.20000
    4272.600     14.00133      4.20000
    4276.800     14.00332      4.20000
    4281.000     14.00893      4.20000
    4285.200     14.01045      4.20000
    4289.400     14.00912      4.20000
    4293.600     14.00689      4.20000
    4297.800     14.00521      4.20000
    4302.000     14.00438      4.20000
    4306.200     14.00435      4.20000
    4310.400     14.00607      4.20000
    4314.600     14.01035      4.20000
    4318.800     14.01659      4.20000
    4323.000     14.02011      4.20000
    4327.200     14.02123      4.20000
    4331.400     14.02201      4.20000
    4335.600     14.02131      4.20000
    4339.800     14.02127      4.20000
    4344.000     14.02225      4.20000
    4348.200     14.02291      4.20000
    4352.400     14.02215      4.20000
    4356.600     14.02251      4.20000
    4360.800     14.02428      4.20000
    4365.000     14.02541      4.20000
    4369.200     14.02565      4.20000
    4373.400     14.02481      4.20000
    4377.600     14.02367      4.20000
    4381.800     14.02363      4.20000
    4386.000     14.02517      4.20000
    4390.200     14.02798      4.20000
    4394.400     14.02991      4.20000
    4398.600     14.02818      4.20000
    4402.800     14.02678      4.20000
    4407.000     14.02839      4.20000
    4411.200     14.03098      4.20000
    4415.400     14.02811      4.20000
    4419.600     14.02276      4.20000
    4423.800     14.02056      4.20000
    4428.000     14.02510      4.20000
    4432.200     14.03422      4.20000
    4436.400     14.04036      4.20000
    4440.600     14.04010      4.20000
    4444.800     14.03728      4.20000
    4449.000     14.04150      4.20000
    4453.200     14.04925      4.20000
    4457.400     14.05520      4.20000
    4461.600     14.05728      4.20000
    4465.800     14.05795      4.20000
    4470.000     14.05591      4.20000
    4474.200     14.05067      4.20000
    4478.400     14.04489      4.20000
    4482.600     14.04527      4.20000
    4486.800     14.04548      4.20000
    4491.000     14.04031      4.20000
    4495.200     14.03375      4.20000
    4499.400     14.03048      4.20000
    4503.600     14.03010      4.20000
    4507.800     14.03055      4.20000
    4512.000     14.03173      4.20000
    4516.200     14.03024      4.20000
    4520.400     14.02691      4.20000
    4524.600     14.02462      4.20000
    4528.800     14.02446      4.20000
    4533.000     14.02496      4.20000
    4537.200     14.02658      4.20000
    4541.400     14.03017      4.20000
    4545.600     14.03318      4.20000
    4549.800     14.03382      4.20000
    4554.000     14.03391      4.20000
    4558.200     14.03552      4.20000
    4562.400     14.03209      4.20000
    4566.600     14.02820      4.20000
    4570.800     14.02921      4.20000
    4575.000     14.03480      4.20000
    4579.200     14.03543      4.20000
    4583.400     14.03458      4.20000
    4587.600     14.03635      4.20000
    4591.800     14.03749      4.20000
    4596.000     14.03441      4.20000
    4600.200     14.03076      4.20000
    4604.400     14.03013      4.20000
    4608.600     14.02987      4.20000
    4612.800     14.03064      4.20000
    4617.000     14.03326      4.20000
    4621.200     14.03803      4.20000
    4625.400     14.04423      4.20000
    4629.600     14.04461      4.20000
    4633.800     14.04097      4.20000
    4638.000     14.03993      4.20000
    4642.200     14.03993      4.20000
    4646.400     14.03885      4.20000
    4650.600     14.03815      4.20000
    4654.800     14.04074      4.20000
    4659.000     14.04240      4.20000
    4663.200     14.04456      4.20000
    4667.400     14.04605      4.20000
    4671.600     14.04262      4.20000
    4675.800     14.03769      4.20000
    4680.000     14.03769      4.20000
    4684.200     14.04382      4.20000
    4688.400     14.04952      4.20000
    4692.600     14.05323      4.20000
    4696.800     14.05545      4.20000
    4701.000     14.05583      4.20000
    4705.200     14.05152      4.20000
    4709.400     14.04745      4.20000
    4713.600     14.04783      4.20000
    4717.800     14.05120      4.20000
    4722.000     14.04823      4.20000
    4726.200     14.04594      4.20000
    4730.400     14.04790      4.20000
    4734.600     14.05154      4.20000
    4738.800     14.05260      4.20000
    4743.000     14.05349      4.20000
    4747.200     14.05484      4.20000
    4751.400     14.05480      4.20000
    4755.600     14.05489      4.20000
    4759.800     14.05674      4.20000
    4764.000     14.05904      4.20000
    4768.200     14.05838      4.20000
    4772.400     14.05596      4.20000
    4776.600     14.05520      4.20000
    4780.800     14.05750      4.20000
    4785.000     14.06026      4.20000
    4789.200     14.06023      4.20000
    4793.400     14.05931      4.20000
    4797.600     14.05922      4.20000
    4801.800     14.05673      4.20000
    4806.000     14.05557      4.20000
    4810.200     14.05584      4.20000
    4814.400     14.05530      4.20000
    4818.600     14.05321      4.20000
    4822.800     14.05377      4.20000
    4827.000     14.05654      4.20000
    4831.200     14.05842      4.20000
    4835.400     14.06163      4.20000
    4839.600     14.06188      4.20000
    4843.800     14.05922      4.20000
    4848.000     14.05862      4.20000
    4852.200     14.06218      4.20000
    4856.400     14.06409      4.20000
    4860.600     14.06203      4.20000
    4864.800     14.06040      4.20000
    4869.000     14.05896      4.20000
    4873.200     14.05715      4.20000
    4877.400     14.05461      4.20000
    4881.600     14.05179      4.20000
    4885.800     14.05163      4.20000
    4890.000     14.05424      4.20000
    4894.200     14.05658      4.20000
    4898.400     14.05420      4.20000
    4902.600     14.05273      4.20000
    4906.800     14.05394      4.20000
    4911.000     14.05636      4.20000
    4915.200     14.05940      4.20000
    4919.400     14.06090      4.20000
    4923.600     14.06047      4.20000
    4927.800     14.05898      4.20000
    4932.000     14.05576      4.20000
    4936.200     14.05457      4.20000
    4940.400     14.05529      4.20000
    4944.600     14.05438      4.20000
    4948.800     14.05304      4.20000
    4953.000     14.05362      4.20000
    4957.200     14.05606      4.20000
    4961.400     14.05772      4.20000
    4965.600     14.05963      4.20000
    4969.800     14.06184      4.20000
    4974.000     14.06275      4.20000
    4978.200     14.05997      4.20000
    4982.400     14.05411      4.20000
    4986.600     14.05044      4.20000
    4990.800     14.05235      4.20000
    4995.000     14.05616      4.20000
    4999.200     14.05909      4.20000
    5003.400     14.06034      4.20000
    5007.600     14.06153      4.20000
    5011.800     14.06577      4.20000
    5016.000     14.06729      4.20000
    5020.200     14.06476      4.20000
    5024.400     14.06198      4.20000
    5028.600     14.06156      4.20000
    5032.800     14.06258      4.20000
    5037.000     14.06510      4.20000
    5041.200     14.06930      4.20000
    5045.400     14.06817      4.20000
    5049.600     14.06467      4.20000
    5053.800     14.06323      4.20000
    5058.000     14.06406      4.20000
    5062.200     14.06194      4.20000
    5066.400     14.05852      4.20000
    5070.600     14.05724      4.20000
    5074.800     14.05847      4.20000
    5079.000     14.05952      4.20000
    5083.200     14.06185      4.20000
    5087.400     14.06649      4.20000
    5091.600     14.06933      4.20000
    5095.800     14.06952      4.20000
    5100.000     14.06757      4.20000
    5104.200     14.06431      4.20000
    5108.400     14.05983      4.20000
    5112.600     14.05759      4.20000
    5116.800     14.05904      4.20000
    5121.000     14.06232      4.20000
    5125.200     14.06313      4.20000
    5129.400     14.06160      4.20000
    5133.600     14.06056      4.20000
    5137.800     14.06243      4.20000
    5142.000     14.06432      4.20000
    5146.200     14.06423      4.20000
